"mz","intensity"
39.02,0.05
41.04,0.39
42.03,0.1
43.02,0.05
43.06,0.29
44.01,0.12
44.05,0.05
53,0.09
53.04,0.03
54.03,0.05
55.02,0.05
55.04,0.13
55.06,0.03
56.05,0.14
57.07,0.03
59,0.02
59.99,1
65.04,0.27
67.02,0.11
67.05,0.76
68.01,0.02
68.05,0.05
69.01,0.14
69.03,0.06
69.07,0.08
70.03,0.11
70.07,0.67
71.05,0.03
71.99,0.05
77.02,0.02
77.04,0.03
78.04,0.03
81.03,0.05
82.07,0.06
83.04,0.15
83.99,0.05
84.04,0.03
84.08,0.06
84.98,0.02
85.01,0.04
85.97,0.62
86,0.15
92.05,0.1
93.06,0.06
94.06,0.04
95.05,0.17
96.06,0.07
98.01,0.07
99.03,0.02
110.01,0.02
111.98,0.25
112.08,0.75
113.02,0.02
114.02,0.07
124.99,0.03
126,0.02
126.04,0.02
129.04,0.02
137.07,0.02
142.02,0.04
154.03,0.3
171.06,0.05
